 HARMONIC   FREQUENCY    FOURIER    NORMALIZED    PHASE        NORMALIZED
    NO         (HZ)     COMPONENT    COMPONENT    (DEG)       PHASE (DEG)

     1     1.000E+03    3.180E+00    1.000E+00   -1.599E+00    0.000E+00
     2     2.000E+03    2.722E-03    8.560E-04   -1.323E+02   -1.291E+02
     3     3.000E+03    3.785E-01    1.190E-01    1.759E+02    1.807E+02
     4     4.000E+03    2.764E-03    8.694E-04   -1.450E+02   -1.386E+02
     5     5.000E+03    1.240E-01    3.901E-02    1.732E+02    1.812E+02
     6     6.000E+03    1.526E-03    4.799E-04   -1.174E+02   -1.078E+02
     7     7.000E+03    4.338E-02    1.364E-02    1.690E+02    1.802E+02
     8     8.000E+03    1.904E-03    5.989E-04   -4.117E+01   -2.838E+01
     9     9.000E+03    2.281E-02    7.172E-03    1.631E+02    1.775E+02
    10     1.000E+04    2.871E-03    9.028E-04   -2.416E+01   -8.164E+00


     TOTAL HARMONIC DISTORTION =   1.262201E+01 PERCENT
	 
	 
	 
 HARMONIC   FREQUENCY    FOURIER    NORMALIZED    PHASE        NORMALIZED
    NO         (HZ)     COMPONENT    COMPONENT    (DEG)       PHASE (DEG)

     1     1.000E+03    4.967E+00    1.000E+00   -1.987E+00    0.000E+00
     2     2.000E+03    1.056E-03    2.125E-04    7.235E+01    7.633E+01
     3     3.000E+03    4.108E-02    8.271E-03   -1.044E+02   -9.840E+01
     4     4.000E+03    1.107E-03    2.229E-04    4.442E+01    5.237E+01
     5     5.000E+03    3.865E-02    7.780E-03   -1.193E+02   -1.094E+02
     6     6.000E+03    1.102E-03    2.218E-04    2.805E+01    3.998E+01
     7     7.000E+03    3.397E-02    6.840E-03   -1.378E+02   -1.239E+02
     8     8.000E+03    9.286E-04    1.869E-04    3.961E+01    5.551E+01
     9     9.000E+03    2.789E-02    5.615E-03   -1.592E+02   -1.414E+02
    10     1.000E+04    9.794E-04    1.972E-04    5.328E+01    7.316E+01


     TOTAL HARMONIC DISTORTION =   1.440358E+00 PERCENT
	 
	 
 HARMONIC   FREQUENCY    FOURIER    NORMALIZED    PHASE        NORMALIZED
    NO         (HZ)     COMPONENT    COMPONENT    (DEG)       PHASE (DEG)

     1     1.000E+03    2.889E+00    1.000E+00   -1.538E+00    0.000E+00
     2     2.000E+03    9.997E-04    3.460E-04    9.691E+01    9.998E+01
     3     3.000E+03    2.231E-03    7.722E-04   -9.310E+00   -4.695E+00
     4     4.000E+03    2.215E-04    7.667E-05    1.328E+02    1.389E+02
     5     5.000E+03    9.148E-04    3.166E-04   -8.839E+01   -8.070E+01
     6     6.000E+03    2.907E-04    1.006E-04    1.093E+02    1.185E+02
     7     7.000E+03    7.879E-04    2.727E-04    1.659E+02    1.767E+02
     8     8.000E+03    1.966E-04    6.805E-05   -2.615E+01   -1.384E+01
     9     9.000E+03    7.393E-04    2.559E-04    8.759E+01    1.014E+02
    10     1.000E+04    3.192E-04    1.105E-04   -1.013E+02   -8.589E+01


     TOTAL HARMONIC DISTORTION =   9.944588E-02 PERCENT
	 
	 
	 
	 
